# col1=gap_en, col2=gap pos, col3=DCM_en, col4=bragg position, col5=intensity
9.0000   19.8950   8.7500   13.0623   715804.0000
9.0000   19.8950   8.7602   13.0468   724128.0000
9.0000   19.8950   8.7704   13.0314   731968.0000
9.0000   19.8950   8.7806   13.0160   740605.0000
9.0000   19.8950   8.7908   13.0006   748036.0000
9.0000   19.8950   8.8010   12.9853   757181.0000
9.0000   19.8950   8.8112   12.9700   766301.0000
9.0000   19.8950   8.8214   12.9547   775519.0000
9.0000   19.8950   8.8316   12.9395   780395.0000
9.0000   19.8950   8.8418   12.9243   798836.0000
9.0000   19.8950   8.8520   12.9091   811706.0000
9.0000   19.8950   8.8622   12.8940   823106.0000
9.0000   19.8950   8.8724   12.8789   834948.0000
9.0000   19.8950   8.8827   12.8639   843443.0000
9.0000   19.8950   8.8929   12.8489   850929.0000
9.0000   19.8950   8.9031   12.8339   854361.0000
9.0000   19.8950   8.9133   12.8190   854944.0000
9.0000   19.8950   8.9235   12.8040   849666.0000
9.0000   19.8950   8.9337   12.7892   840795.0000
9.0000   19.8950   8.9439   12.7743   827197.0000
9.0000   19.8950   8.9541   12.7595   807461.0000
9.0000   19.8950   8.9643   12.7448   782864.0000
9.0000   19.8950   8.9745   12.7300   752332.0000
9.0000   19.8950   8.9847   12.7153   717594.0000
9.0000   19.8950   8.9949   12.7007   676836.0000
9.0000   19.8950   9.0051   12.6860   633988.0000
9.0000   19.8950   9.0153   12.6714   585906.0000
9.0000   19.8950   9.0255   12.6569   535638.0000
9.0000   19.8950   9.0357   12.6423   482880.0000
9.0000   19.8950   9.0459   12.6278   429947.0000
9.0000   19.8950   9.0561   12.6134   377566.0000
9.0000   19.8950   9.0663   12.5989   328659.0000
9.0000   19.8950   9.0765   12.5846   285210.0000
9.0000   19.8950   9.0867   12.5702   250879.0000
9.0000   19.8950   9.0969   12.5559   227531.0000
9.0000   19.8950   9.1071   12.5416   211594.0000
9.0000   19.8950   9.1173   12.5273   204820.0000
9.0000   19.8950   9.1276   12.5131   197171.0000
9.0000   19.8950   9.1378   12.4989   186204.0000
9.0000   19.8950   9.1480   12.4847   175553.0000
9.0000   19.8950   9.1582   12.4706   160161.0000
9.0000   19.8950   9.1684   12.4565   142875.0000
9.0000   19.8950   9.1786   12.4424   125547.0000
9.0000   19.8950   9.1888   12.4284   110157.0000
9.0000   19.8950   9.1990   12.4143   98442.0000
9.0000   19.8950   9.2092   12.4004   90942.0000
9.0000   19.8950   9.2194   12.3864   87383.0000
9.0000   19.8950   9.2296   12.3725   86412.0000
9.0000   19.8950   9.2398   12.3586   87574.0000
9.0000   19.8950   9.2500   12.3448   88675.0000
