# col1=gap_en, col2=gap pos, col3=DCM_en, col4=bragg position, col5=intensity
7.0000   6.9996   6.7500   16.4103   572413.0000
7.0000   6.9996   6.7602   16.4103   777835.0000
7.0000   6.9996   6.7704   17.0363   707375.0000
7.0000   6.9996   6.7806   16.9570   721767.0000
7.0000   6.9996   6.7908   16.9308   736575.0000
7.0000   6.9996   6.8010   16.9046   750820.0000
7.0000   6.9996   6.8112   16.8785   763691.0000
7.0000   6.9996   6.8214   16.8525   776220.0000
7.0000   6.9996   6.8316   16.8266   777461.0000
7.0000   6.9996   6.8418   16.8008   806421.0000
7.0000   6.9996   6.8520   16.7750   821848.0000
7.0000   6.9996   6.8622   16.7493   839561.0000
7.0000   6.9996   6.8724   16.7237   858861.0000
7.0000   6.9996   6.8827   16.6982   877008.0000
7.0000   6.9996   6.8929   16.6728   891811.0000
7.0000   6.9996   6.9031   16.6474   901098.0000
7.0000   6.9996   6.9133   16.6221   903673.0000
7.0000   6.9996   6.9235   16.5969   898048.0000
7.0000   6.9996   6.9337   16.5718   882475.0000
7.0000   6.9996   6.9439   16.5467   858242.0000
7.0000   6.9996   6.9541   16.5217   826991.0000
7.0000   6.9996   6.9643   16.4968   783345.0000
7.0000   6.9996   6.9745   16.4720   731367.0000
7.0000   6.9996   6.9847   16.4473   672238.0000
7.0000   6.9996   6.9949   16.4226   608111.0000
7.0000   6.9996   7.0051   16.3980   539261.0000
7.0000   6.9996   7.0153   16.3735   470121.0000
7.0000   6.9996   7.0255   16.3490   402133.0000
7.0000   6.9996   7.0357   16.3246   339551.0000
7.0000   6.9996   7.0459   16.3003   287116.0000
7.0000   6.9996   7.0561   16.2761   250157.0000
7.0000   6.9996   7.0663   16.2520   231257.0000
7.0000   6.9996   7.0765   16.2279   223130.0000
7.0000   6.9996   7.0867   16.2039   216181.0000
7.0000   6.9996   7.0969   16.1799   204066.0000
7.0000   6.9996   7.1071   16.1561   185880.0000
7.0000   6.9996   7.1173   16.1323   162531.0000
7.0000   6.9996   7.1276   16.1085   138072.0000
7.0000   6.9996   7.1378   16.0849   119411.0000
7.0000   6.9996   7.1480   16.0613   108416.0000
7.0000   6.9996   7.1582   16.0378   106225.0000
7.0000   6.9996   7.1684   16.0143   108457.0000
7.0000   6.9996   7.1786   15.9910   111194.0000
7.0000   6.9996   7.1888   15.9677   110479.0000
7.0000   6.9996   7.1990   15.9444   108159.0000
7.0000   6.9996   7.2092   15.9213   101982.0000
7.0000   6.9996   7.2194   15.8982   94642.0000
7.0000   6.9996   7.2296   15.8751   88395.0000
7.0000   6.9996   7.2398   15.8522   85410.0000
7.0000   6.9996   7.2500   15.8293   85826.0000
